Trace for Mass:	1:227.5	2:228.5	3:229.5	4:230.5	5:231.5	6:229Th	6:230Th	6:232Th	7:233U
Resolution:	High	High	High	High	High	High	High	High	High
									
Time	Intensity	Intensity	Intensity	Intensity	Intensity	Intensity	Intensity	Intensity	Intensity
[sec]	[cps]	[cps]	[cps]	[cps]	[cps]	[cps]	[cps]	[cps]	[cps]

0.	6.866641044616699	1.553959250450134	16.42947006225586	75.93159484863281	1129.990356445313	-4.958472345606424e-005	405.3206787109375	6.835452079772949	718.243896484375	
19.19899940490723	5.538470268249512	0.4914229810237885	14.30439758300781	98.24492645263672	1115.1142578125	-5.805470573250204e-005	368.1313781738281	6.895182132720947	713.4623413085938	
38.39899826049805	8.726079940795898	-0.5711132287979126	16.42947006225586	99.30746459960938	1115.1142578125	-4.147255458519794e-005	393.6325988769531	6.832184791564941	759.1526489257813	
57.59799957275391	7.132275104522705	-0.5711132287979126	3.679031848907471	105.6827087402344	1210.746459960938	-2.656031392689329e-005	359.6309814453125	6.92167329788208	709.743408203125	
76.79799652099609	6.069738864898682	-3.984512761235237e-002	14.30439758300781	98.24492645263672	1144.866455078125	-2.560592292866204e-005	389.3823852539063	6.989398956298828	730.99462890625	
